# KELL 1978
# @url: http://dx.doi.org/10.1098/rspa.1978.0075
# @description: Liquid water in the range 150-350 degrees C, from saturation to 1 Kbar
# @source: Kell, G. S., G. E. McLaurin, and E. Whalley, Proc. Roy. Soc. London A 360, 389 (1978).
# @units: K,kg/m^3,MPa
# @year: 1978
# @species: H2O
# @phase: liquid
# Columns: Temperature [K], density [kg/m3], pressure [MPa]
# column names below:
T,rho,p

448.111965532,892.560000000,1.260000000
448.111965532,893.040000000,2.000000000
473.110243037,865.040000000,2.000000000
448.111965532,893.520000000,2.740000000
473.110243037,865.600000000,2.740000000
448.111965532,894.460000000,4.211000000
473.110243037,866.710000000,4.211000000
448.111965532,895.400000000,5.681000000
473.110243037,867.810000000,5.681000000
523.109665697,800.970000000,5.681000000
448.111965532,896.330000000,7.151000000
473.110243037,868.900000000,7.151000000
523.109665697,802.640000000,7.151000000
548.110120397,760.990000000,7.151000000
448.111965532,897.260000000,8.631000000
473.110243037,869.990000000,8.631000000
523.109665697,804.300000000,8.631000000
548.110120397,763.220000000,8.631000000
448.111965532,898.180000000,10.101000000
473.110243037,871.050000000,10.101000000
523.109665697,805.910000000,10.101000000
548.110120397,765.390000000,10.101000000
573.110474836,715.640000000,10.101000000
448.111965532,899.090000000,11.571000000
473.110243037,872.110000000,11.571000000
523.109665697,807.510000000,11.571000000
548.110120397,767.510000000,11.571000000
573.110474836,718.790000000,11.571000000
448.111965532,899.990000000,13.052000000
473.110243037,873.170000000,13.052000000
523.109665697,809.080000000,13.052000000
548.110120397,769.600000000,13.052000000
573.110474836,721.850000000,13.052000000
598.110246330,658.180000000,13.052000000
448.111965532,901.290000000,15.189000000
473.110243037,874.680000000,15.189000000
523.109665697,811.320000000,15.189000000
548.110120397,772.550000000,15.189000000
573.110474836,726.060000000,15.189000000
598.110246330,665.600000000,15.189000000
448.111965532,904.780000000,21.028000000
473.110243037,878.710000000,21.028000000
523.109665697,817.200000000,21.028000000
548.110120397,780.120000000,21.028000000
573.110474836,736.620000000,21.028000000
598.110246330,682.720000000,21.028000000
623.108985102,606.490000000,21.028000000
448.111965532,908.180000000,26.857000000
473.110243037,882.600000000,26.857000000
523.109665697,822.760000000,26.857000000
548.110120397,787.140000000,26.857000000
573.110474836,746.060000000,26.857000000
598.110246330,696.770000000,26.857000000
623.108985102,632.880000000,26.857000000
448.111965532,911.490000000,32.695000000
473.110243037,886.390000000,32.695000000
523.109665697,828.040000000,32.695000000
548.110120397,793.710000000,32.695000000
573.110474836,754.650000000,32.695000000
598.110246330,708.880000000,32.695000000
623.108985102,652.470000000,32.695000000
448.111965532,914.730000000,38.522000000
473.110243037,890.060000000,38.522000000
523.109665697,833.110000000,38.522000000
548.110120397,799.910000000,38.522000000
573.110474836,762.550000000,38.522000000
598.110246330,719.540000000,38.522000000
623.108985102,668.290000000,38.522000000
448.111965532,917.880000000,44.349000000
473.110243037,893.620000000,44.349000000
523.109665697,837.960000000,44.349000000
548.110120397,805.770000000,44.349000000
573.110474836,769.880000000,44.349000000
598.110246330,729.140000000,44.349000000
623.108985102,681.780000000,44.349000000
448.111965532,920.970000000,50.185000000
473.110243037,897.100000000,50.185000000
523.109665697,842.600000000,50.185000000
548.110120397,811.350000000,50.185000000
573.110474836,776.750000000,50.185000000
598.110246330,737.950000000,50.185000000
623.108985102,693.630000000,50.185000000
448.111965532,924.000000000,56.011000000
473.110243037,900.490000000,56.011000000
523.109665697,847.100000000,56.011000000
548.110120397,816.670000000,56.011000000
573.110474836,783.210000000,56.011000000
598.110246330,746.040000000,56.011000000
623.108985102,704.200000000,56.011000000
448.111965532,926.970000000,61.847000000
473.110243037,903.790000000,61.847000000
523.109665697,851.440000000,61.847000000
548.110120397,821.760000000,61.847000000
573.110474836,789.330000000,61.847000000
598.110246330,753.600000000,61.847000000
623.108985102,713.830000000,61.847000000
448.111965532,929.860000000,67.671000000
473.110243037,907.020000000,67.671000000
523.109665697,855.610000000,67.671000000
548.110120397,826.640000000,67.671000000
573.110474836,795.130000000,67.671000000
598.110246330,760.660000000,67.671000000
623.108985102,722.650000000,67.671000000
448.111965532,932.710000000,73.506000000
473.110243037,910.180000000,73.506000000
523.109665697,859.670000000,73.506000000
548.110120397,831.340000000,73.506000000
573.110474836,800.670000000,73.506000000
598.110246330,767.320000000,73.506000000
623.108985102,730.850000000,73.506000000
448.111965532,935.500000000,79.329000000
473.110243037,913.260000000,79.329000000
523.109665697,863.590000000,79.329000000
548.110120397,835.860000000,79.329000000
573.110474836,805.960000000,79.329000000
598.110246330,773.620000000,79.329000000
623.108985102,738.490000000,79.329000000
448.111965532,938.250000000,85.163000000
473.110243037,916.290000000,85.163000000
523.109665697,867.410000000,85.163000000
548.110120397,840.230000000,85.163000000
573.110474836,811.050000000,85.163000000
598.110246330,779.610000000,85.163000000
623.108985102,745.670000000,85.163000000
448.111965532,940.940000000,90.985000000
473.110243037,919.250000000,90.985000000
523.109665697,871.120000000,90.985000000
548.110120397,844.460000000,90.985000000
573.110474836,815.920000000,90.985000000
598.110246330,785.320000000,90.985000000
623.108985102,752.440000000,90.985000000
448.111965532,943.590000000,96.808000000
473.110243037,922.150000000,96.808000000
523.109665697,874.730000000,96.808000000
548.110120397,848.550000000,96.808000000
573.110474836,820.620000000,96.808000000
598.110246330,790.770000000,96.808000000
623.108985102,758.850000000,96.808000000
448.111965532,946.190000000,102.639000000
473.110243037,925.000000000,102.639000000
523.109665697,878.250000000,102.639000000
548.110120397,852.530000000,102.639000000
573.110474836,825.160000000,102.639000000
598.110246330,796.020000000,102.639000000
623.108985102,764.970000000,102.639000000
